Input File: 00NSIN.78D
Measure Group: FFT
Measurement: FFT 1
Num of extracted Points: 401
Start Freq: -0 Hz
Span: 800 Hz
FFT Lines:  400 
Window: BMH
Averaging Mode: RMS
Averaging Type: Exp. / Cont.
Number of Avg:   25
Overload reject: Off

    X[Hz]      Vrms/Hz^(1/... 
  0.000000e+00   1.257455e-05 
  2.000000e+00   9.344221e-06 
  4.000000e+00   4.554818e-06 
  6.000000e+00   2.916689e-06 
  8.000000e+00   2.896785e-06 
  1.000000e+01   2.963864e-06 
  1.200000e+01   2.994506e-06 
  1.400000e+01   2.934546e-06 
  1.600000e+01   2.657940e-06 
  1.800000e+01   2.092073e-06 
  2.000000e+01   1.878670e-06 
  2.200000e+01   2.014690e-06 
  2.400000e+01   2.041328e-06 
  2.600000e+01   1.729040e-06 
  2.800000e+01   1.676845e-06 
  3.000000e+01   1.734109e-06 
  3.200000e+01   1.643515e-06 
  3.400000e+01   1.718829e-06 
  3.600000e+01   1.742818e-06 
  3.800000e+01   1.524097e-06 
  4.000000e+01   1.479823e-06 
  4.200000e+01   1.436608e-06 
  4.400000e+01   1.378281e-06 
  4.600000e+01   1.464392e-06 
  4.800000e+01   1.366708e-06 
  5.000000e+01   1.368267e-06 
  5.200000e+01   1.349329e-06 
  5.400000e+01   1.256271e-06 
  5.600000e+01   2.395216e-06 
  5.800000e+01   7.432959e-06 
  6.000000e+01   1.092172e-05 
  6.200000e+01   7.514052e-06 
  6.400000e+01   2.410890e-06 
  6.600000e+01   9.916629e-07 
  6.800000e+01   1.028778e-06 
  7.000000e+01   1.034537e-06 
  7.200000e+01   1.262878e-06 
  7.400000e+01   1.455181e-06 
  7.600000e+01   1.411352e-06 
  7.800000e+01   1.210625e-06 
  8.000000e+01   1.075776e-06 
  8.200000e+01   9.901194e-07 
  8.400000e+01   9.344712e-07 
  8.600000e+01   9.809819e-07 
  8.800000e+01   1.031553e-06 
  9.000000e+01   1.042191e-06 
  9.200000e+01   1.007085e-06 
  9.400000e+01   1.027377e-06 
  9.600000e+01   1.114814e-06 
  9.800000e+01   1.115215e-06 
  1.000000e+02   1.070446e-06 
  1.020000e+02   1.018771e-06 
  1.040000e+02   1.017184e-06 
  1.060000e+02   1.008752e-06 
  1.080000e+02   1.021671e-06 
  1.100000e+02   9.506346e-07 
  1.120000e+02   8.690702e-07 
  1.140000e+02   8.999116e-07 
  1.160000e+02   9.471458e-07 
  1.180000e+02   1.128522e-06 
  1.200000e+02   1.296931e-06 
  1.220000e+02   1.152215e-06 
  1.240000e+02   9.192473e-07 
  1.260000e+02   8.553413e-07 
  1.280000e+02   9.372516e-07 
  1.300000e+02   1.005050e-06 
  1.320000e+02   1.058565e-06 
  1.340000e+02   1.096857e-06 
  1.360000e+02   1.005557e-06 
  1.380000e+02   8.958041e-07 
  1.400000e+02   8.487369e-07 
  1.420000e+02   8.039205e-07 
  1.440000e+02   7.987142e-07 
  1.460000e+02   8.185426e-07 
  1.480000e+02   8.793515e-07 
  1.500000e+02   8.886279e-07 
  1.520000e+02   7.942585e-07 
  1.540000e+02   7.151611e-07 
  1.560000e+02   7.528156e-07 
  1.580000e+02   7.509324e-07 
  1.600000e+02   7.023523e-07 
  1.620000e+02   7.735028e-07 
  1.640000e+02   8.396676e-07 
  1.660000e+02   8.218869e-07 
  1.680000e+02   7.205174e-07 
  1.700000e+02   7.725495e-07 
  1.720000e+02   9.137061e-07 
  1.740000e+02   9.224207e-07 
  1.760000e+02   1.018624e-06 
  1.780000e+02   3.034024e-06 
  1.800000e+02   4.833015e-06 
  1.820000e+02   3.580993e-06 
  1.840000e+02   1.461409e-06 
  1.860000e+02   7.897928e-07 
  1.880000e+02   7.381994e-07 
  1.900000e+02   8.131679e-07 
  1.920000e+02   8.832176e-07 
  1.940000e+02   8.921562e-07 
  1.960000e+02   8.084797e-07 
  1.980000e+02   7.386984e-07 
  2.000000e+02   7.198611e-07 
  2.020000e+02   7.134185e-07 
  2.040000e+02   6.634288e-07 
  2.060000e+02   6.421926e-07 
  2.080000e+02   6.921092e-07 
  2.100000e+02   7.357733e-07 
  2.120000e+02   8.375536e-07 
  2.140000e+02   7.514514e-07 
  2.160000e+02   6.110083e-07 
  2.180000e+02   6.624644e-07 
  2.200000e+02   7.728195e-07 
  2.220000e+02   7.940118e-07 
  2.240000e+02   7.857428e-07 
  2.260000e+02   7.866468e-07 
  2.280000e+02   8.225966e-07 
  2.300000e+02   8.159578e-07 
  2.320000e+02   7.630974e-07 
  2.340000e+02   7.795135e-07 
  2.360000e+02   8.223638e-07 
  2.380000e+02   7.739897e-07 
  2.400000e+02   7.450946e-07 
  2.420000e+02   6.854805e-07 
  2.440000e+02   6.309897e-07 
  2.460000e+02   6.266260e-07 
  2.480000e+02   6.954286e-07 
  2.500000e+02   7.355402e-07 
  2.520000e+02   7.397215e-07 
  2.540000e+02   7.644373e-07 
  2.560000e+02   7.992318e-07 
  2.580000e+02   6.857818e-07 
  2.600000e+02   6.353845e-07 
  2.620000e+02   7.083137e-07 
  2.640000e+02   7.947370e-07 
  2.660000e+02   7.964365e-07 
  2.680000e+02   7.044403e-07 
  2.700000e+02   6.620052e-07 
  2.720000e+02   6.735376e-07 
  2.740000e+02   6.280595e-07 
  2.760000e+02   6.088962e-07 
  2.780000e+02   6.464844e-07 
  2.800000e+02   7.661987e-07 
  2.820000e+02   8.519658e-07 
  2.840000e+02   8.162679e-07 
  2.860000e+02   7.508407e-07 
  2.880000e+02   7.518877e-07 
  2.900000e+02   7.170792e-07 
  2.920000e+02   6.402777e-07 
  2.940000e+02   7.647804e-07 
  2.960000e+02   1.084158e-06 
  2.980000e+02   2.947664e-06 
  3.000000e+02   4.347206e-06 
  3.020000e+02   3.017345e-06 
  3.040000e+02   1.126857e-06 
  3.060000e+02   7.405420e-07 
  3.080000e+02   7.219885e-07 
  3.100000e+02   7.502791e-07 
  3.120000e+02   8.561082e-07 
  3.140000e+02   8.256061e-07 
  3.160000e+02   7.199229e-07 
  3.180000e+02   7.160184e-07 
  3.200000e+02   6.992491e-07 
  3.220000e+02   6.222655e-07 
  3.240000e+02   6.450873e-07 
  3.260000e+02   7.648480e-07 
  3.280000e+02   7.566049e-07 
  3.300000e+02   7.557834e-07 
  3.320000e+02   7.468651e-07 
  3.340000e+02   6.205092e-07 
  3.360000e+02   5.483774e-07 
  3.380000e+02   6.634596e-07 
  3.400000e+02   7.022967e-07 
  3.420000e+02   6.812506e-07 
  3.440000e+02   7.186327e-07 
  3.460000e+02   7.390383e-07 
  3.480000e+02   6.748880e-07 
  3.500000e+02   7.776949e-07 
  3.520000e+02   8.342278e-07 
  3.540000e+02   7.202544e-07 
  3.560000e+02   7.534239e-07 
  3.580000e+02   7.719993e-07 
  3.600000e+02   7.828227e-07 
  3.620000e+02   7.572341e-07 
  3.640000e+02   6.430199e-07 
  3.660000e+02   6.559652e-07 
  3.680000e+02   7.426860e-07 
  3.700000e+02   8.266697e-07 
  3.720000e+02   8.561206e-07 
  3.740000e+02   7.556885e-07 
  3.760000e+02   6.811547e-07 
  3.780000e+02   7.037855e-07 
  3.800000e+02   7.089146e-07 
  3.820000e+02   7.294706e-07 
  3.840000e+02   6.875387e-07 
  3.860000e+02   7.334075e-07 
  3.880000e+02   8.091380e-07 
  3.900000e+02   7.442130e-07 
  3.920000e+02   6.719745e-07 
  3.940000e+02   7.303751e-07 
  3.960000e+02   7.837540e-07 
  3.980000e+02   7.726226e-07 
  4.000000e+02   7.364882e-07 
  4.020000e+02   6.632642e-07 
  4.040000e+02   6.511281e-07 
  4.060000e+02   8.120015e-07 
  4.080000e+02   8.650208e-07 
  4.100000e+02   7.987520e-07 
  4.120000e+02   7.073427e-07 
  4.140000e+02   6.557788e-07 
  4.160000e+02   7.822742e-07 
  4.180000e+02   1.305577e-06 
  4.200000e+02   1.684212e-06 
  4.220000e+02   1.235808e-06 
  4.240000e+02   7.049268e-07 
  4.260000e+02   6.390551e-07 
  4.280000e+02   6.130418e-07 
  4.300000e+02   5.834270e-07 
  4.320000e+02   6.859374e-07 
  4.340000e+02   7.904644e-07 
  4.360000e+02   6.890874e-07 
  4.380000e+02   6.187145e-07 
  4.400000e+02   6.982252e-07 
  4.420000e+02   7.307940e-07 
  4.440000e+02   7.534108e-07 
  4.460000e+02   6.870541e-07 
  4.480000e+02   5.735401e-07 
  4.500000e+02   5.709458e-07 
  4.520000e+02   6.884593e-07 
  4.540000e+02   7.854155e-07 
  4.560000e+02   7.015292e-07 
  4.580000e+02   5.778190e-07 
  4.600000e+02   5.391188e-07 
  4.620000e+02   6.655477e-07 
  4.640000e+02   7.320813e-07 
  4.660000e+02   6.085695e-07 
  4.680000e+02   5.997053e-07 
  4.700000e+02   6.164905e-07 
  4.720000e+02   6.883594e-07 
  4.740000e+02   7.729720e-07 
  4.760000e+02   7.317420e-07 
  4.780000e+02   6.711421e-07 
  4.800000e+02   6.411573e-07 
  4.820000e+02   6.948986e-07 
  4.840000e+02   7.215753e-07 
  4.860000e+02   7.192764e-07 
  4.880000e+02   7.867619e-07 
  4.900000e+02   7.414215e-07 
  4.920000e+02   6.432001e-07 
  4.940000e+02   6.728002e-07 
  4.960000e+02   7.696028e-07 
  4.980000e+02   7.816424e-07 
  5.000000e+02   7.447380e-07 
  5.020000e+02   6.991787e-07 
  5.040000e+02   6.930113e-07 
  5.060000e+02   7.330794e-07 
  5.080000e+02   7.003038e-07 
  5.100000e+02   6.473773e-07 
  5.120000e+02   6.341035e-07 
  5.140000e+02   6.785391e-07 
  5.160000e+02   6.871089e-07 
  5.180000e+02   6.088579e-07 
  5.200000e+02   6.029366e-07 
  5.220000e+02   6.406829e-07 
  5.240000e+02   7.115349e-07 
  5.260000e+02   6.790567e-07 
  5.280000e+02   6.996289e-07 
  5.300000e+02   6.570150e-07 
  5.320000e+02   6.470328e-07 
  5.340000e+02   6.924067e-07 
  5.360000e+02   7.292032e-07 
  5.380000e+02   1.085676e-06 
  5.400000e+02   1.384424e-06 
  5.420000e+02   1.004230e-06 
  5.440000e+02   5.885952e-07 
  5.460000e+02   5.409368e-07 
  5.480000e+02   6.146806e-07 
  5.500000e+02   6.855919e-07 
  5.520000e+02   7.309138e-07 
  5.540000e+02   7.579313e-07 
  5.560000e+02   6.744212e-07 
  5.580000e+02   6.397956e-07 
  5.600000e+02   6.386954e-07 
  5.620000e+02   6.714178e-07 
  5.640000e+02   7.227417e-07 
  5.660000e+02   6.961912e-07 
  5.680000e+02   6.520370e-07 
  5.700000e+02   6.719931e-07 
  5.720000e+02   6.894546e-07 
  5.740000e+02   7.947988e-07 
  5.760000e+02   8.002494e-07 
  5.780000e+02   7.012162e-07 
  5.800000e+02   6.661567e-07 
  5.820000e+02   7.209800e-07 
  5.840000e+02   7.883100e-07 
  5.860000e+02   7.159429e-07 
  5.880000e+02   6.283587e-07 
  5.900000e+02   6.831330e-07 
  5.920000e+02   6.989837e-07 
  5.940000e+02   6.494010e-07 
  5.960000e+02   7.190573e-07 
  5.980000e+02   6.890129e-07 
  6.000000e+02   6.663071e-07 
  6.020000e+02   6.614410e-07 
  6.040000e+02   6.260049e-07 
  6.060000e+02   7.281215e-07 
  6.080000e+02   7.980514e-07 
  6.100000e+02   7.543334e-07 
  6.120000e+02   7.684349e-07 
  6.140000e+02   6.516465e-07 
  6.160000e+02   6.061818e-07 
  6.180000e+02   6.402556e-07 
  6.200000e+02   6.361770e-07 
  6.220000e+02   5.587331e-07 
  6.240000e+02   5.294926e-07 
  6.260000e+02   6.384083e-07 
  6.280000e+02   6.933479e-07 
  6.300000e+02   6.426854e-07 
  6.320000e+02   6.156204e-07 
  6.340000e+02   6.664068e-07 
  6.360000e+02   7.244577e-07 
  6.380000e+02   6.766489e-07 
  6.400000e+02   6.257843e-07 
  6.420000e+02   6.932040e-07 
  6.440000e+02   7.642253e-07 
  6.460000e+02   7.634243e-07 
  6.480000e+02   6.046382e-07 
  6.500000e+02   5.153525e-07 
  6.520000e+02   6.013659e-07 
  6.540000e+02   7.016756e-07 
  6.560000e+02   7.314268e-07 
  6.580000e+02   9.191681e-07 
  6.600000e+02   1.100816e-06 
  6.620000e+02   9.722360e-07 
  6.640000e+02   8.472628e-07 
  6.660000e+02   6.923243e-07 
  6.680000e+02   6.542832e-07 
  6.700000e+02   7.319915e-07 
  6.720000e+02   6.557520e-07 
  6.740000e+02   5.799099e-07 
  6.760000e+02   5.929722e-07 
  6.780000e+02   6.659558e-07 
  6.800000e+02   7.704788e-07 
  6.820000e+02   7.436794e-07 
  6.840000e+02   7.175431e-07 
  6.860000e+02   7.742967e-07 
  6.880000e+02   7.721450e-07 
  6.900000e+02   7.211594e-07 
  6.920000e+02   6.357176e-07 
  6.940000e+02   6.498543e-07 
  6.960000e+02   7.179443e-07 
  6.980000e+02   7.177792e-07 
  7.000000e+02   6.678237e-07 
  7.020000e+02   6.778474e-07 
  7.040000e+02   6.691326e-07 
  7.060000e+02   6.820512e-07 
  7.080000e+02   6.762128e-07 
  7.100000e+02   6.953538e-07 
  7.120000e+02   7.446824e-07 
  7.140000e+02   7.325735e-07 
  7.160000e+02   7.052410e-07 
  7.180000e+02   7.353010e-07 
  7.200000e+02   8.289714e-07 
  7.220000e+02   7.418278e-07 
  7.240000e+02   6.132134e-07 
  7.260000e+02   5.701672e-07 
  7.280000e+02   6.168980e-07 
  7.300000e+02   7.065942e-07 
  7.320000e+02   7.183934e-07 
  7.340000e+02   7.086286e-07 
  7.360000e+02   7.657468e-07 
  7.380000e+02   7.488568e-07 
  7.400000e+02   6.752139e-07 
  7.420000e+02   5.906654e-07 
  7.440000e+02   6.527324e-07 
  7.460000e+02   7.788869e-07 
  7.480000e+02   8.215018e-07 
  7.500000e+02   7.593928e-07 
  7.520000e+02   7.407374e-07 
  7.540000e+02   7.450049e-07 
  7.560000e+02   6.435954e-07 
  7.580000e+02   6.420946e-07 
  7.600000e+02   6.394267e-07 
  7.620000e+02   5.984739e-07 
  7.640000e+02   6.348116e-07 
  7.660000e+02   6.671989e-07 
  7.680000e+02   6.756877e-07 
  7.700000e+02   6.263027e-07 
  7.720000e+02   6.248918e-07 
  7.740000e+02   6.225126e-07 
  7.760000e+02   5.716871e-07 
  7.780000e+02   5.865409e-07 
  7.800000e+02   7.480046e-07 
  7.820000e+02   7.796739e-07 
  7.840000e+02   6.633118e-07 
  7.860000e+02   6.645803e-07 
  7.880000e+02   7.633122e-07 
  7.900000e+02   6.716046e-07 
  7.920000e+02   6.487526e-07 
  7.940000e+02   7.482608e-07 
  7.960000e+02   7.624676e-07 
  7.980000e+02   7.061205e-07 
  8.000000e+02   6.659637e-07 
