Input File: 02SN.78D
Measure Group: FFT
Measurement: FFT 1
Num of extracted Points: 401
Start Freq: -0 Hz
Span: 800 Hz
FFT Lines:  400 
Window: BMH
Averaging Mode: RMS
Averaging Type: Exp. / Cont.
Number of Avg:   25
Overload reject: Off

    X[Hz]      Vrms/Hz^(1/... 
  0.000000e+00   2.367150e-04 
  2.000000e+00   1.995076e-04 
  4.000000e+00   1.450882e-04 
  6.000000e+00   1.141064e-04 
  8.000000e+00   9.627635e-05 
  1.000000e+01   9.757537e-05 
  1.200000e+01   9.537140e-05 
  1.400000e+01   9.345866e-05 
  1.600000e+01   8.680152e-05 
  1.800000e+01   7.620907e-05 
  2.000000e+01   7.253697e-05 
  2.200000e+01   6.905302e-05 
  2.400000e+01   6.504793e-05 
  2.600000e+01   6.285138e-05 
  2.800000e+01   6.126354e-05 
  3.000000e+01   6.420583e-05 
  3.200000e+01   6.464190e-05 
  3.400000e+01   5.963512e-05 
  3.600000e+01   5.476728e-05 
  3.800000e+01   4.800691e-05 
  4.000000e+01   4.413081e-05 
  4.200000e+01   4.624611e-05 
  4.400000e+01   4.291971e-05 
  4.600000e+01   4.010383e-05 
  4.800000e+01   4.371141e-05 
  5.000000e+01   4.589785e-05 
  5.200000e+01   4.683170e-05 
  5.400000e+01   4.648187e-05 
  5.600000e+01   4.859612e-05 
  5.800000e+01   8.793063e-05 
  6.000000e+01   1.206245e-04 
  6.200000e+01   8.676526e-05 
  6.400000e+01   4.125127e-05 
  6.600000e+01   3.000424e-05 
  6.800000e+01   2.920665e-05 
  7.000000e+01   3.108425e-05 
  7.200000e+01   3.100582e-05 
  7.400000e+01   2.995376e-05 
  7.600000e+01   3.009341e-05 
  7.800000e+01   2.827241e-05 
  8.000000e+01   2.914912e-05 
  8.200000e+01   2.746190e-05 
  8.400000e+01   2.469040e-05 
  8.600000e+01   2.536259e-05 
  8.800000e+01   2.724159e-05 
  9.000000e+01   2.680707e-05 
  9.200000e+01   2.651610e-05 
  9.400000e+01   2.577009e-05 
  9.600000e+01   2.622298e-05 
  9.800000e+01   2.672266e-05 
  1.000000e+02   2.411844e-05 
  1.020000e+02   2.526182e-05 
  1.040000e+02   2.567384e-05 
  1.060000e+02   2.094362e-05 
  1.080000e+02   1.882157e-05 
  1.100000e+02   2.144374e-05 
  1.120000e+02   2.178453e-05 
  1.140000e+02   2.121004e-05 
  1.160000e+02   2.211084e-05 
  1.180000e+02   2.587377e-05 
  1.200000e+02   2.986333e-05 
  1.220000e+02   2.510090e-05 
  1.240000e+02   2.128583e-05 
  1.260000e+02   2.139750e-05 
  1.280000e+02   2.017965e-05 
  1.300000e+02   1.989021e-05 
  1.320000e+02   2.001316e-05 
  1.340000e+02   2.035689e-05 
  1.360000e+02   1.971607e-05 
  1.380000e+02   1.835409e-05 
  1.400000e+02   1.719873e-05 
  1.420000e+02   1.644528e-05 
  1.440000e+02   1.554166e-05 
  1.460000e+02   1.438312e-05 
  1.480000e+02   1.432050e-05 
  1.500000e+02   1.515861e-05 
  1.520000e+02   1.473004e-05 
  1.540000e+02   1.402887e-05 
  1.560000e+02   1.497927e-05 
  1.580000e+02   1.537131e-05 
  1.600000e+02   1.455806e-05 
  1.620000e+02   1.397528e-05 
  1.640000e+02   1.439738e-05 
  1.660000e+02   1.601064e-05 
  1.680000e+02   1.539880e-05 
  1.700000e+02   1.334885e-05 
  1.720000e+02   1.332131e-05 
  1.740000e+02   1.356877e-05 
  1.760000e+02   2.179120e-05 
  1.780000e+02   6.176212e-05 
  1.800000e+02   8.987737e-05 
  1.820000e+02   6.170100e-05 
  1.840000e+02   2.255613e-05 
  1.860000e+02   1.333505e-05 
  1.880000e+02   1.304033e-05 
  1.900000e+02   1.354360e-05 
  1.920000e+02   1.212715e-05 
  1.940000e+02   1.191285e-05 
  1.960000e+02   1.350806e-05 
  1.980000e+02   1.294173e-05 
  2.000000e+02   1.209060e-05 
  2.020000e+02   1.288950e-05 
  2.040000e+02   1.318859e-05 
  2.060000e+02   1.183825e-05 
  2.080000e+02   1.065877e-05 
  2.100000e+02   1.092961e-05 
  2.120000e+02   1.181295e-05 
  2.140000e+02   1.260914e-05 
  2.160000e+02   1.212813e-05 
  2.180000e+02   1.145728e-05 
  2.200000e+02   1.032459e-05 
  2.220000e+02   1.005447e-05 
  2.240000e+02   1.074232e-05 
  2.260000e+02   1.123799e-05 
  2.280000e+02   1.025920e-05 
  2.300000e+02   9.617361e-06 
  2.320000e+02   1.045958e-05 
  2.340000e+02   1.017045e-05 
  2.360000e+02   9.955680e-06 
  2.380000e+02   1.023253e-05 
  2.400000e+02   9.579817e-06 
  2.420000e+02   9.040599e-06 
  2.440000e+02   9.990026e-06 
  2.460000e+02   1.055513e-05 
  2.480000e+02   9.323853e-06 
  2.500000e+02   9.129177e-06 
  2.520000e+02   1.011479e-05 
  2.540000e+02   9.601206e-06 
  2.560000e+02   7.795091e-06 
  2.580000e+02   7.664796e-06 
  2.600000e+02   8.675923e-06 
  2.620000e+02   8.638965e-06 
  2.640000e+02   8.415793e-06 
  2.660000e+02   8.188352e-06 
  2.680000e+02   8.000354e-06 
  2.700000e+02   8.594669e-06 
  2.720000e+02   9.685275e-06 
  2.740000e+02   9.134249e-06 
  2.760000e+02   7.573600e-06 
  2.780000e+02   6.939378e-06 
  2.800000e+02   7.495395e-06 
  2.820000e+02   7.460812e-06 
  2.840000e+02   7.803805e-06 
  2.860000e+02   7.978687e-06 
  2.880000e+02   8.107458e-06 
  2.900000e+02   8.327202e-06 
  2.920000e+02   7.706399e-06 
  2.940000e+02   6.650892e-06 
  2.960000e+02   1.079664e-05 
  2.980000e+02   2.577008e-05 
  3.000000e+02   3.561669e-05 
  3.020000e+02   2.427590e-05 
  3.040000e+02   9.731488e-06 
  3.060000e+02   7.792161e-06 
  3.080000e+02   7.822900e-06 
  3.100000e+02   7.781438e-06 
  3.120000e+02   7.593792e-06 
  3.140000e+02   7.670297e-06 
  3.160000e+02   7.807667e-06 
  3.180000e+02   7.269159e-06 
  3.200000e+02   7.475698e-06 
  3.220000e+02   7.493997e-06 
  3.240000e+02   6.253278e-06 
  3.260000e+02   6.602022e-06 
  3.280000e+02   6.904156e-06 
  3.300000e+02   6.864635e-06 
  3.320000e+02   7.906892e-06 
  3.340000e+02   7.996876e-06 
  3.360000e+02   7.688084e-06 
  3.380000e+02   7.703721e-06 
  3.400000e+02   7.359681e-06 
  3.420000e+02   7.479596e-06 
  3.440000e+02   7.703420e-06 
  3.460000e+02   7.327944e-06 
  3.480000e+02   6.594679e-06 
  3.500000e+02   6.875251e-06 
  3.520000e+02   7.885003e-06 
  3.540000e+02   7.890641e-06 
  3.560000e+02   7.523918e-06 
  3.580000e+02   6.933305e-06 
  3.600000e+02   6.490128e-06 
  3.620000e+02   6.967914e-06 
  3.640000e+02   7.676877e-06 
  3.660000e+02   7.468745e-06 
  3.680000e+02   7.503387e-06 
  3.700000e+02   7.768563e-06 
  3.720000e+02   7.582290e-06 
  3.740000e+02   7.067501e-06 
  3.760000e+02   6.696328e-06 
  3.780000e+02   6.916200e-06 
  3.800000e+02   6.525983e-06 
  3.820000e+02   6.130119e-06 
  3.840000e+02   6.094750e-06 
  3.860000e+02   6.728322e-06 
  3.880000e+02   7.086687e-06 
  3.900000e+02   6.398391e-06 
  3.920000e+02   6.609828e-06 
  3.940000e+02   7.398751e-06 
  3.960000e+02   7.750502e-06 
  3.980000e+02   7.927740e-06 
  4.000000e+02   6.729636e-06 
  4.020000e+02   6.301166e-06 
  4.040000e+02   6.443664e-06 
  4.060000e+02   6.442781e-06 
  4.080000e+02   6.162931e-06 
  4.100000e+02   5.700838e-06 
  4.120000e+02   5.779984e-06 
  4.140000e+02   6.151341e-06 
  4.160000e+02   8.516426e-06 
  4.180000e+02   1.961031e-05 
  4.200000e+02   2.778164e-05 
  4.220000e+02   1.969569e-05 
  4.240000e+02   8.009461e-06 
  4.260000e+02   5.180848e-06 
  4.280000e+02   4.963430e-06 
  4.300000e+02   5.259470e-06 
  4.320000e+02   5.321534e-06 
  4.340000e+02   5.163743e-06 
  4.360000e+02   5.424426e-06 
  4.380000e+02   5.702724e-06 
  4.400000e+02   5.051739e-06 
  4.420000e+02   4.577539e-06 
  4.440000e+02   5.411675e-06 
  4.460000e+02   5.471378e-06 
  4.480000e+02   5.261144e-06 
  4.500000e+02   5.342577e-06 
  4.520000e+02   5.073072e-06 
  4.540000e+02   5.241574e-06 
  4.560000e+02   5.895338e-06 
  4.580000e+02   5.921621e-06 
  4.600000e+02   5.562792e-06 
  4.620000e+02   5.736953e-06 
  4.640000e+02   5.315472e-06 
  4.660000e+02   4.742071e-06 
  4.680000e+02   5.045636e-06 
  4.700000e+02   5.008158e-06 
  4.720000e+02   5.044629e-06 
  4.740000e+02   5.033518e-06 
  4.760000e+02   4.776203e-06 
  4.780000e+02   4.774804e-06 
  4.800000e+02   4.949677e-06 
  4.820000e+02   4.605233e-06 
  4.840000e+02   4.513686e-06 
  4.860000e+02   4.595644e-06 
  4.880000e+02   4.318929e-06 
  4.900000e+02   4.393145e-06 
  4.920000e+02   4.422284e-06 
  4.940000e+02   4.249006e-06 
  4.960000e+02   4.270286e-06 
  4.980000e+02   4.791370e-06 
  5.000000e+02   4.802861e-06 
  5.020000e+02   4.422574e-06 
  5.040000e+02   4.728815e-06 
  5.060000e+02   4.863175e-06 
  5.080000e+02   4.631938e-06 
  5.100000e+02   4.677869e-06 
  5.120000e+02   4.619827e-06 
  5.140000e+02   4.881345e-06 
  5.160000e+02   5.276933e-06 
  5.180000e+02   5.308499e-06 
  5.200000e+02   4.724448e-06 
  5.220000e+02   4.575772e-06 
  5.240000e+02   4.845083e-06 
  5.260000e+02   4.634798e-06 
  5.280000e+02   4.373747e-06 
  5.300000e+02   4.369130e-06 
  5.320000e+02   4.518698e-06 
  5.340000e+02   4.959555e-06 
  5.360000e+02   6.011374e-06 
  5.380000e+02   1.205315e-05 
  5.400000e+02   1.645186e-05 
  5.420000e+02   1.143892e-05 
  5.440000e+02   5.304370e-06 
  5.460000e+02   4.465664e-06 
  5.480000e+02   4.547573e-06 
  5.500000e+02   4.291570e-06 
  5.520000e+02   4.066603e-06 
  5.540000e+02   4.532023e-06 
  5.560000e+02   4.705105e-06 
  5.580000e+02   4.636192e-06 
  5.600000e+02   4.672800e-06 
  5.620000e+02   4.375976e-06 
  5.640000e+02   3.987439e-06 
  5.660000e+02   4.069105e-06 
  5.680000e+02   4.404766e-06 
  5.700000e+02   4.210121e-06 
  5.720000e+02   4.190385e-06 
  5.740000e+02   4.349110e-06 
  5.760000e+02   4.375757e-06 
  5.780000e+02   4.494451e-06 
  5.800000e+02   4.210784e-06 
  5.820000e+02   3.920841e-06 
  5.840000e+02   3.947589e-06 
  5.860000e+02   4.155780e-06 
  5.880000e+02   4.532933e-06 
  5.900000e+02   5.719509e-06 
  5.920000e+02   6.486727e-06 
  5.940000e+02   5.596381e-06 
  5.960000e+02   6.519502e-06 
  5.980000e+02   6.734672e-06 
  6.000000e+02   5.194251e-06 
  6.020000e+02   4.566797e-06 
  6.040000e+02   4.195149e-06 
  6.060000e+02   3.623463e-06 
  6.080000e+02   4.245326e-06 
  6.100000e+02   4.391722e-06 
  6.120000e+02   3.855150e-06 
  6.140000e+02   3.818635e-06 
  6.160000e+02   4.003390e-06 
  6.180000e+02   4.140172e-06 
  6.200000e+02   4.155081e-06 
  6.220000e+02   3.805221e-06 
  6.240000e+02   3.739141e-06 
  6.260000e+02   3.946228e-06 
  6.280000e+02   3.799913e-06 
  6.300000e+02   3.701573e-06 
  6.320000e+02   3.767189e-06 
  6.340000e+02   3.786993e-06 
  6.360000e+02   3.865066e-06 
  6.380000e+02   3.525609e-06 
  6.400000e+02   3.463184e-06 
  6.420000e+02   3.455805e-06 
  6.440000e+02   3.907959e-06 
  6.460000e+02   4.169994e-06 
  6.480000e+02   3.744504e-06 
  6.500000e+02   3.191218e-06 
  6.520000e+02   3.281055e-06 
  6.540000e+02   3.769919e-06 
  6.560000e+02   5.030621e-06 
  6.580000e+02   1.159665e-05 
  6.600000e+02   1.634299e-05 
  6.620000e+02   1.130594e-05 
  6.640000e+02   4.830038e-06 
  6.660000e+02   3.557128e-06 
  6.680000e+02   3.226848e-06 
  6.700000e+02   2.948855e-06 
  6.720000e+02   3.099180e-06 
  6.740000e+02   3.365530e-06 
  6.760000e+02   3.508261e-06 
  6.780000e+02   3.797692e-06 
  6.800000e+02   3.786799e-06 
  6.820000e+02   3.623523e-06 
  6.840000e+02   3.564798e-06 
  6.860000e+02   3.544586e-06 
  6.880000e+02   3.627311e-06 
  6.900000e+02   3.893270e-06 
  6.920000e+02   3.871663e-06 
  6.940000e+02   3.866232e-06 
  6.960000e+02   3.671459e-06 
  6.980000e+02   3.435726e-06 
  7.000000e+02   2.963166e-06 
  7.020000e+02   2.865999e-06 
  7.040000e+02   3.460256e-06 
  7.060000e+02   3.978455e-06 
  7.080000e+02   3.649451e-06 
  7.100000e+02   3.524278e-06 
  7.120000e+02   3.752460e-06 
  7.140000e+02   3.576243e-06 
  7.160000e+02   3.245947e-06 
  7.180000e+02   3.344109e-06 
  7.200000e+02   3.958105e-06 
  7.220000e+02   3.827946e-06 
  7.240000e+02   3.213580e-06 
  7.260000e+02   3.125860e-06 
  7.280000e+02   2.857219e-06 
  7.300000e+02   2.682805e-06 
  7.320000e+02   3.063190e-06 
  7.340000e+02   3.395242e-06 
  7.360000e+02   3.328679e-06 
  7.380000e+02   3.369722e-06 
  7.400000e+02   3.303858e-06 
  7.420000e+02   3.281526e-06 
  7.440000e+02   3.366899e-06 
  7.460000e+02   3.387516e-06 
  7.480000e+02   3.407548e-06 
  7.500000e+02   3.435960e-06 
  7.520000e+02   3.390716e-06 
  7.540000e+02   3.573894e-06 
  7.560000e+02   3.524573e-06 
  7.580000e+02   3.101966e-06 
  7.600000e+02   3.006332e-06 
  7.620000e+02   3.034455e-06 
  7.640000e+02   3.014123e-06 
  7.660000e+02   3.123403e-06 
  7.680000e+02   3.296794e-06 
  7.700000e+02   3.320645e-06 
  7.720000e+02   3.105891e-06 
  7.740000e+02   3.012892e-06 
  7.760000e+02   3.969103e-06 
  7.780000e+02   6.557733e-06 
  7.800000e+02   8.536967e-06 
  7.820000e+02   6.219424e-06 
  7.840000e+02   3.403162e-06 
  7.860000e+02   4.368033e-06 
  7.880000e+02   6.401602e-06 
  7.900000e+02   5.550174e-06 
  7.920000e+02   3.639649e-06 
  7.940000e+02   5.223196e-06 
  7.960000e+02   6.621670e-06 
  7.980000e+02   4.920416e-06 
  8.000000e+02   3.277618e-06 
